Wavelength,Absorbance
3999.598,0.007
3997.670,0.007
3995.741,0.008
3993.813,0.008
3991.885,0.008
3989.956,0.008
3988.028,0.008
3986.099,0.008
3984.171,0.007
3982.242,0.007
3980.314,0.007
3978.385,0.007
3976.457,0.007
3974.528,0.007
3972.600,0.008
3970.672,0.008
3968.743,0.008
3966.815,0.008
3964.886,0.008
3962.958,0.008
3961.029,0.008
3959.101,0.008
3957.172,0.008
3955.244,0.008
3953.315,0.008
3951.387,0.008
3949.459,0.008
3947.530,0.008
3945.602,0.008
3943.673,0.008
3941.745,0.007
3939.816,0.007
3937.888,0.007
3935.959,0.007
3934.031,0.008
3932.103,0.008
3930.174,0.008
3928.246,0.008
3926.317,0.008
3924.389,0.008
3922.460,0.008
3920.532,0.008
3918.604,0.008
3916.675,0.008
3914.747,0.008
3912.818,0.007
3910.890,0.007
3908.961,0.008
3907.033,0.008
3905.104,0.009
3903.176,0.010
3901.248,0.010
3899.319,0.010
3897.391,0.010
3895.462,0.009
3893.534,0.009
3891.605,0.008
3889.677,0.008
3887.748,0.008
3885.820,0.008
3883.891,0.008
3881.963,0.008
3880.034,0.008
3878.106,0.008
3876.178,0.008
3874.249,0.007
3872.321,0.008
3870.392,0.008
3868.464,0.009
3866.535,0.009
3864.607,0.009
3862.678,0.008
3860.750,0.008
3858.822,0.008
3856.893,0.008
3854.965,0.009
3853.036,0.008
3851.108,0.008
3849.179,0.008
3847.251,0.008
3845.323,0.008
3843.394,0.008
3841.466,0.009
3839.537,0.009
3837.609,0.010
3835.680,0.010
3833.752,0.009
3831.823,0.008
3829.895,0.008
3827.967,0.007
3826.038,0.007
3824.110,0.007
3822.181,0.008
3820.253,0.008
3818.324,0.008
3816.396,0.008
3814.467,0.008
3812.539,0.007
3810.610,0.007
3808.682,0.007
3806.754,0.008
3804.825,0.008
3802.897,0.009
3800.968,0.009
3799.040,0.009
3797.111,0.008
3795.183,0.008
3793.254,0.007
3791.326,0.007
3789.397,0.007
3787.469,0.006
3785.541,0.007
3783.612,0.007
3781.684,0.007
3779.755,0.006
3777.827,0.006
3775.898,0.006
3773.970,0.006
3772.042,0.006
3770.113,0.006
3768.185,0.007
3766.256,0.007
3764.328,0.007
3762.399,0.007
3760.471,0.007
3758.542,0.007
3756.614,0.008
3754.686,0.008
3752.757,0.009
3750.829,0.009
3748.900,0.010
3746.972,0.011
3745.043,0.011
3743.115,0.012
3741.186,0.013
3739.258,0.015
3737.330,0.017
3735.401,0.018
3733.473,0.020
3731.544,0.021
3729.616,0.021
3727.687,0.021
3725.759,0.020
3723.830,0.018
3721.902,0.017
3719.973,0.014
3718.045,0.013
3716.117,0.012
3714.188,0.012
3712.260,0.012
3710.331,0.013
3708.403,0.015
3706.474,0.016
3704.546,0.016
3702.617,0.016
3700.689,0.015
3698.760,0.014
3696.832,0.014
3694.904,0.013
3692.975,0.013
3691.047,0.013
3689.118,0.012
3687.190,0.012
3685.261,0.011
3683.333,0.010
3681.405,0.010
3679.476,0.010
3677.548,0.010
3675.619,0.011
3673.691,0.011
3671.762,0.011
3669.834,0.011
3667.906,0.010
3665.977,0.010
3664.049,0.009
3662.120,0.009
3660.192,0.009
3658.263,0.009
3656.335,0.010
3654.406,0.011
3652.478,0.012
3650.549,0.012
3648.621,0.013
3646.693,0.013
3644.764,0.013
3642.836,0.013
3640.907,0.013
3638.979,0.014
3637.050,0.014
3635.122,0.016
3633.193,0.017
3631.265,0.018
3629.336,0.019
3627.408,0.020
3625.479,0.019
3623.551,0.019
3621.623,0.019
3619.694,0.018
3617.766,0.017
3615.837,0.016
3613.909,0.016
3611.980,0.016
3610.052,0.017
3608.124,0.017
3606.195,0.018
3604.267,0.018
3602.338,0.019
3600.410,0.019
3598.481,0.018
3596.553,0.018
3594.625,0.018
3592.696,0.017
3590.768,0.016
3588.839,0.016
3586.911,0.015
3584.982,0.015
3583.054,0.014
3581.125,0.013
3579.197,0.012
3577.268,0.012
3575.340,0.011
3573.412,0.012
3571.483,0.013
3569.555,0.014
3567.626,0.014
3565.698,0.015
3563.769,0.015
3561.841,0.015
3559.912,0.014
3557.984,0.013
3556.055,0.012
3554.127,0.012
3552.199,0.013
3550.270,0.013
3548.342,0.014
3546.413,0.014
3544.485,0.014
3542.556,0.014
3540.628,0.013
3538.699,0.013
3536.771,0.012
3534.843,0.012
3532.914,0.013
3530.986,0.013
3529.057,0.013
3527.129,0.014
3525.200,0.014
3523.272,0.013
3521.344,0.013
3519.415,0.013
3517.487,0.012
3515.558,0.012
3513.630,0.012
3511.701,0.012
3509.773,0.013
3507.844,0.013
3505.916,0.013
3503.988,0.013
3502.059,0.013
3500.131,0.013
3498.202,0.013
3496.274,0.013
3494.345,0.013
3492.417,0.013
3490.488,0.013
3488.560,0.014
3486.631,0.014
3484.703,0.014
3482.775,0.015
3480.846,0.015
3478.918,0.015
3476.989,0.015
3475.061,0.015
3473.132,0.015
3471.204,0.015
3469.275,0.015
3467.347,0.016
3465.418,0.016
3463.490,0.017
3461.562,0.018
3459.633,0.019
3457.705,0.020
3455.776,0.020
3453.848,0.020
3451.919,0.021
3449.991,0.021
3448.062,0.022
3446.134,0.022
3444.206,0.022
3442.277,0.021
3440.349,0.020
3438.420,0.019
3436.492,0.018
3434.563,0.017
3432.635,0.017
3430.707,0.017
3428.778,0.017
3426.850,0.018
3424.921,0.019
3422.993,0.019
3421.064,0.019
3419.136,0.020
3417.207,0.020
3415.279,0.019
3413.351,0.019
3411.422,0.020
3409.494,0.020
3407.565,0.020
3405.637,0.021
3403.708,0.021
3401.780,0.022
3399.851,0.022
3397.923,0.023
3395.994,0.023
3394.066,0.024
3392.137,0.026
3390.209,0.027
3388.281,0.029
3386.352,0.030
3384.424,0.032
3382.495,0.033
3380.567,0.035
3378.638,0.036
3376.710,0.038
3374.781,0.039
3372.853,0.041
3370.925,0.044
3368.996,0.046
3367.068,0.049
3365.139,0.052
3363.211,0.055
3361.282,0.059
3359.354,0.062
3357.426,0.066
3355.497,0.069
3353.569,0.072
3351.640,0.075
3349.712,0.078
3347.783,0.081
3345.855,0.083
3343.926,0.085
3341.998,0.087
3340.070,0.089
3338.141,0.090
3336.213,0.091
3334.284,0.092
3332.356,0.092
3330.427,0.092
3328.499,0.091
3326.570,0.091
3324.642,0.090
3322.713,0.089
3320.785,0.088
3318.857,0.087
3316.928,0.086
3315.000,0.085
3313.071,0.085
3311.143,0.084
3309.214,0.084
3307.286,0.085
3305.357,0.084
3303.429,0.084
3301.500,0.082
3299.572,0.080
3297.644,0.076
3295.715,0.072
3293.787,0.067
3291.858,0.063
3289.930,0.058
3288.001,0.054
3286.073,0.051
3284.145,0.048
3282.216,0.045
3280.288,0.042
3278.359,0.040
3276.431,0.038
3274.502,0.037
3272.574,0.035
3270.646,0.034
3268.717,0.032
3266.789,0.031
3264.860,0.030
3262.932,0.029
3261.003,0.028
3259.075,0.028
3257.146,0.027
3255.218,0.026
3253.289,0.025
3251.361,0.025
3249.433,0.024
3247.504,0.023
3245.576,0.023
3243.647,0.023
3241.719,0.022
3239.790,0.022
3237.862,0.022
3235.933,0.021
3234.005,0.021
3232.076,0.021
3230.148,0.020
3228.219,0.020
3226.291,0.020
3224.363,0.020
3222.434,0.020
3220.506,0.019
3218.577,0.019
3216.649,0.019
3214.720,0.019
3212.792,0.019
3210.864,0.019
3208.935,0.019
3207.007,0.019
3205.078,0.019
3203.150,0.019
3201.221,0.019
3199.293,0.019
3197.365,0.020
3195.436,0.020
3193.508,0.020
3191.579,0.020
3189.651,0.019
3187.722,0.019
3185.794,0.018
3183.865,0.018
3181.937,0.017
3180.009,0.017
3178.080,0.016
3176.152,0.016
3174.223,0.015
3172.295,0.015
3170.366,0.014
3168.438,0.014
3166.509,0.014
3164.581,0.013
3162.652,0.013
3160.724,0.013
3158.795,0.013
3156.867,0.013
3154.939,0.013
3153.010,0.013
3151.082,0.013
3149.153,0.013
3147.225,0.013
3145.296,0.013
3143.368,0.014
3141.439,0.014
3139.511,0.014
3137.583,0.015
3135.654,0.016
3133.726,0.016
3131.797,0.017
3129.869,0.018
3127.940,0.018
3126.012,0.018
3124.083,0.018
3122.155,0.018
3120.227,0.018
3118.298,0.017
3116.370,0.017
3114.441,0.017
3112.513,0.017
3110.584,0.017
3108.656,0.016
3106.728,0.016
3104.799,0.016
3102.871,0.016
3100.942,0.016
3099.014,0.016
3097.085,0.016
3095.157,0.016
3093.228,0.016
3091.300,0.017
3089.371,0.017
3087.443,0.017
3085.515,0.017
3083.586,0.017
3081.658,0.017
3079.729,0.017
3077.801,0.018
3075.872,0.018
3073.944,0.018
3072.015,0.019
3070.087,0.020
3068.158,0.020
3066.230,0.021
3064.302,0.022
3062.373,0.022
3060.445,0.023
3058.516,0.023
3056.588,0.023
3054.659,0.023
3052.731,0.023
3050.802,0.023
3048.874,0.024
3046.946,0.024
3045.017,0.025
3043.089,0.025
3041.160,0.026
3039.232,0.026
3037.303,0.026
3035.375,0.026
3033.447,0.026
3031.518,0.026
3029.590,0.025
3027.661,0.025
3025.733,0.024
3023.804,0.024
3021.876,0.024
3019.947,0.024
3018.019,0.025
3016.091,0.025
3014.162,0.026
3012.234,0.027
3010.305,0.028
3008.377,0.030
3006.448,0.031
3004.520,0.033
3002.591,0.034
3000.663,0.036
2998.734,0.038
2996.806,0.041
2994.877,0.044
2992.949,0.047
2991.021,0.050
2989.092,0.054
2987.164,0.059
2985.235,0.064
2983.307,0.070
2981.378,0.076
2979.450,0.083
2977.521,0.091
2975.593,0.099
2973.665,0.109
2971.736,0.119
2969.808,0.130
2967.879,0.141
2965.951,0.152
2964.022,0.162
2962.094,0.170
2960.166,0.177
2958.237,0.181
2956.309,0.184
2954.380,0.184
2952.452,0.182
2950.523,0.180
2948.595,0.177
2946.667,0.174
2944.738,0.171
2942.810,0.169
2940.881,0.168
2938.953,0.166
2937.024,0.165
2935.096,0.165
2933.167,0.164
2931.239,0.165
2929.310,0.167
2927.382,0.171
2925.453,0.178
2923.525,0.187
2921.597,0.196
2919.668,0.201
2917.740,0.201
2915.811,0.195
2913.883,0.184
2911.954,0.169
2910.026,0.152
2908.097,0.137
2906.169,0.125
2904.240,0.118
2902.312,0.113
2900.384,0.110
2898.455,0.107
2896.527,0.103
2894.598,0.100
2892.670,0.096
2890.741,0.092
2888.813,0.088
2886.885,0.085
2884.956,0.083
2883.028,0.083
2881.099,0.084
2879.171,0.085
2877.242,0.088
2875.314,0.090
2873.385,0.091
2871.457,0.090
2869.529,0.088
2867.600,0.086
2865.672,0.082
2863.743,0.079
2861.815,0.077
2859.886,0.077
2857.958,0.080
2856.029,0.086
2854.101,0.092
2852.173,0.097
2850.244,0.097
2848.316,0.093
2846.387,0.085
2844.459,0.073
2842.530,0.059
2840.602,0.047
2838.673,0.039
2836.745,0.034
2834.816,0.031
2832.888,0.030
2830.960,0.029
2829.031,0.028
2827.103,0.027
2825.174,0.026
2823.246,0.025
2821.317,0.024
2819.389,0.023
2817.460,0.022
2815.532,0.021
2813.604,0.020
2811.675,0.019
2809.747,0.019
2807.818,0.018
2805.890,0.018
2803.961,0.018
2802.033,0.017
2800.104,0.017
2798.176,0.017
2796.248,0.016
2794.319,0.016
2792.391,0.016
2790.462,0.016
2788.534,0.016
2786.605,0.016
2784.677,0.016
2782.749,0.016
2780.820,0.016
2778.892,0.016
2776.963,0.016
2775.035,0.016
2773.106,0.016
2771.178,0.016
2769.249,0.016
2767.321,0.016
2765.392,0.016
2763.464,0.015
2761.535,0.015
2759.607,0.015
2757.679,0.015
2755.750,0.015
2753.822,0.015
2751.893,0.015
2749.965,0.015
2748.036,0.015
2746.108,0.015
2744.179,0.015
2742.251,0.014
2740.323,0.014
2738.394,0.014
2736.466,0.014
2734.537,0.014
2732.609,0.014
2730.680,0.014
2728.752,0.014
2726.823,0.013
2724.895,0.013
2722.967,0.013
2721.038,0.013
2719.110,0.013
2717.181,0.012
2715.253,0.012
2713.324,0.012
2711.396,0.012
2709.468,0.012
2707.539,0.012
2705.611,0.012
2703.682,0.012
2701.754,0.012
2699.825,0.012
2697.897,0.012
2695.968,0.012
2694.040,0.012
2692.111,0.012
2690.183,0.012
2688.255,0.011
2686.326,0.011
2684.398,0.011
2682.469,0.011
2680.541,0.011
2678.612,0.011
2676.684,0.011
2674.755,0.011
2672.827,0.011
2670.898,0.011
2668.970,0.011
2667.042,0.011
2665.113,0.011
2663.185,0.011
2661.256,0.011
2659.328,0.011
2657.399,0.011
2655.471,0.011
2653.542,0.011
2651.614,0.011
2649.686,0.011
2647.757,0.011
2645.829,0.011
2643.900,0.011
2641.972,0.011
2640.043,0.011
2638.115,0.010
2636.187,0.010
2634.258,0.010
2632.330,0.010
2630.401,0.010
2628.473,0.010
2626.544,0.010
2624.616,0.010
2622.687,0.010
2620.759,0.010
2618.831,0.010
2616.902,0.010
2614.974,0.010
2613.045,0.010
2611.117,0.010
2609.188,0.010
2607.260,0.010
2605.331,0.009
2603.403,0.010
2601.474,0.010
2599.546,0.010
2597.618,0.010
2595.689,0.010
2593.761,0.010
2591.832,0.010
2589.904,0.010
2587.975,0.010
2586.047,0.009
2584.118,0.009
2582.190,0.009
2580.261,0.009
2578.333,0.009
2576.405,0.010
2574.476,0.010
2572.548,0.010
2570.619,0.010
2568.691,0.010
2566.762,0.010
2564.834,0.010
2562.906,0.010
2560.977,0.010
2559.049,0.010
2557.120,0.010
2555.192,0.010
2553.263,0.009
2551.335,0.009
2549.406,0.009
2547.478,0.009
2545.550,0.009
2543.621,0.009
2541.693,0.009
2539.764,0.009
2537.836,0.009
2535.907,0.009
2533.979,0.009
2532.050,0.009
2530.122,0.009
2528.193,0.009
2526.265,0.009
2524.337,0.009
2522.408,0.010
2520.480,0.010
2518.551,0.010
2516.623,0.010
2514.694,0.010
2512.766,0.010
2510.837,0.010
2508.909,0.010
2506.980,0.010
2505.052,0.010
2503.124,0.010
2501.195,0.010
2499.267,0.010
2497.338,0.010
2495.410,0.010
2493.481,0.010
2491.553,0.010
2489.625,0.010
2487.696,0.010
2485.768,0.010
2483.839,0.010
2481.911,0.010
2479.982,0.010
2478.054,0.010
2476.125,0.009
2474.197,0.009
2472.269,0.009
2470.340,0.009
2468.412,0.009
2466.483,0.009
2464.555,0.009
2462.626,0.009
2460.698,0.009
2458.770,0.009
2456.841,0.009
2454.913,0.009
2452.984,0.009
2451.056,0.009
2449.127,0.009
2447.199,0.009
2445.270,0.009
2443.342,0.010
2441.413,0.010
2439.485,0.010
2437.556,0.010
2435.628,0.010
2433.700,0.010
2431.771,0.009
2429.843,0.009
2427.914,0.009
2425.986,0.009
2424.057,0.009
2422.129,0.009
2420.200,0.009
2418.272,0.009
2416.344,0.009
2414.415,0.009
2412.487,0.009
2410.558,0.009
2408.630,0.009
2406.701,0.009
2404.773,0.009
2402.844,0.009
2400.916,0.009
2398.988,0.009
2397.059,0.009
2395.131,0.009
2393.202,0.009
2391.274,0.009
2389.345,0.011
2387.417,0.014
2385.489,0.019
2383.560,0.026
2381.632,0.036
2379.703,0.047
2377.775,0.060
2375.846,0.075
2373.918,0.093
2371.989,0.112
2370.061,0.132
2368.132,0.153
2366.204,0.171
2364.276,0.187
2362.347,0.197
2360.419,0.199
2358.490,0.194
2356.562,0.181
2354.633,0.163
2352.705,0.145
2350.776,0.132
2348.848,0.125
2346.919,0.126
2344.991,0.131
2343.062,0.138
2341.134,0.145
2339.206,0.148
2337.277,0.148
2335.349,0.144
2333.420,0.140
2331.492,0.136
2329.563,0.132
2327.635,0.128
2325.707,0.122
2323.778,0.114
2321.850,0.105
2319.921,0.096
2317.993,0.088
2316.064,0.080
2314.136,0.074
2312.208,0.068
2310.279,0.063
2308.351,0.058
2306.422,0.053
2304.494,0.048
2302.565,0.043
2300.637,0.039
2298.708,0.035
2296.780,0.032
2294.851,0.029
2292.923,0.025
2290.995,0.022
2289.066,0.019
2287.138,0.017
2285.209,0.015
2283.281,0.014
2281.352,0.014
2279.424,0.014
2277.495,0.014
2275.567,0.014
2273.638,0.014
2271.710,0.015
2269.782,0.014
2267.853,0.014
2265.925,0.015
2263.996,0.014
2262.068,0.014
2260.139,0.014
2258.211,0.013
2256.282,0.012
2254.354,0.011
2252.426,0.011
2250.497,0.010
2248.569,0.010
2246.640,0.009
2244.712,0.008
2242.783,0.008
2240.855,0.007
2238.927,0.007
2236.998,0.007
2235.070,0.007
2233.141,0.008
2231.213,0.008
2229.284,0.008
2227.356,0.008
2225.427,0.008
2223.499,0.008
2221.571,0.008
2219.642,0.007
2217.714,0.007
2215.785,0.006
2213.857,0.006
2211.928,0.006
2210.000,0.005
2208.071,0.004
2206.143,0.004
2204.214,0.003
2202.286,0.003
2200.358,0.003
2198.429,0.003
2196.501,0.004
2194.572,0.005
2192.644,0.007
2190.715,0.008
2188.787,0.008
2186.858,0.009
2184.930,0.009
2183.001,0.009
2181.073,0.007
2179.145,0.005
2177.216,0.004
2175.288,0.003
2173.359,0.002
2171.431,0.002
2169.502,0.002
2167.574,0.003
2165.646,0.006
2163.717,0.007
2161.789,0.008
2159.860,0.008
2157.932,0.008
2156.003,0.008
2154.075,0.007
2152.146,0.006
2150.218,0.005
2148.290,0.004
2146.361,0.003
2144.433,0.002
2142.504,0.001
2140.576,0.001
2138.647,0.001
2136.719,0.001
2134.790,0.002
2132.862,0.003
2130.934,0.005
2129.005,0.005
2127.077,0.006
2125.148,0.007
2123.220,0.008
2121.291,0.008
2119.363,0.008
2117.434,0.007
2115.506,0.007
2113.577,0.006
2111.649,0.006
2109.720,0.006
2107.792,0.006
2105.864,0.007
2103.935,0.007
2102.007,0.008
2100.078,0.008
2098.150,0.007
2096.221,0.007
2094.293,0.007
2092.365,0.007
2090.436,0.007
2088.508,0.007
2086.579,0.007
2084.651,0.006
2082.722,0.006
2080.794,0.005
2078.865,0.006
2076.937,0.006
2075.009,0.007
2073.080,0.007
2071.152,0.008
2069.223,0.008
2067.295,0.008
2065.366,0.009
2063.438,0.009
2061.510,0.008
2059.581,0.008
2057.653,0.007
2055.724,0.007
2053.796,0.007
2051.867,0.007
2049.939,0.007
2048.010,0.007
2046.082,0.007
2044.153,0.007
2042.225,0.006
2040.297,0.005
2038.368,0.004
2036.440,0.005
2034.511,0.005
2032.583,0.006
2030.654,0.005
2028.726,0.004
2026.797,0.002
2024.869,0.001
2022.940,0.000
2021.012,0.000
2019.084,0.002
2017.155,0.004
2015.227,0.006
2013.298,0.008
2011.370,0.008
2009.441,0.009
2007.513,0.009
2005.584,0.010
2003.656,0.010
2001.728,0.009
1999.799,0.008
1997.871,0.008
1995.942,0.007
1994.014,0.006
1992.085,0.006
1990.157,0.006
1988.228,0.007
1986.300,0.007
1984.372,0.006
1982.443,0.006
1980.515,0.005
1978.586,0.005
1976.658,0.004
1974.729,0.003
1972.801,0.002
1970.872,0.001
1968.944,0.002
1967.016,0.002
1965.087,0.003
1963.159,0.004
1961.230,0.005
1959.302,0.005
1957.373,0.005
1955.445,0.005
1953.516,0.005
1951.588,0.005
1949.660,0.005
1947.731,0.006
1945.803,0.006
1943.874,0.006
1941.946,0.006
1940.017,0.006
1938.089,0.007
1936.160,0.007
1934.232,0.007
1932.303,0.007
1930.375,0.008
1928.447,0.008
1926.518,0.009
1924.590,0.009
1922.661,0.010
1920.733,0.010
1918.804,0.011
1916.876,0.011
1914.948,0.011
1913.019,0.011
1911.091,0.011
1909.162,0.011
1907.234,0.011
1905.305,0.011
1903.377,0.011
1901.448,0.011
1899.520,0.011
1897.591,0.011
1895.663,0.011
1893.734,0.011
1891.806,0.011
1889.878,0.011
1887.949,0.011
1886.021,0.011
1884.092,0.011
1882.164,0.011
1880.235,0.012
1878.307,0.011
1876.379,0.011
1874.450,0.011
1872.522,0.011
1870.593,0.011
1868.665,0.012
1866.736,0.012
1864.808,0.012
1862.879,0.012
1860.951,0.012
1859.022,0.011
1857.094,0.011
1855.166,0.011
1853.237,0.011
1851.309,0.012
1849.380,0.012
1847.452,0.013
1845.523,0.014
1843.595,0.015
1841.667,0.015
1839.738,0.015
1837.810,0.016
1835.881,0.016
1833.953,0.017
1832.024,0.017
1830.096,0.018
1828.167,0.019
1826.239,0.019
1824.310,0.020
1822.382,0.020
1820.454,0.021
1818.525,0.021
1816.597,0.022
1814.668,0.023
1812.740,0.024
1810.811,0.025
1808.883,0.026
1806.954,0.027
1805.026,0.028
1803.098,0.029
1801.169,0.030
1799.241,0.031
1797.312,0.033
1795.384,0.034
1793.455,0.035
1791.527,0.035
1789.598,0.037
1787.670,0.038
1785.742,0.039
1783.813,0.040
1781.885,0.042
1779.956,0.044
1778.028,0.046
1776.099,0.048
1774.171,0.051
1772.242,0.054
1770.314,0.058
1768.385,0.062
1766.457,0.067
1764.529,0.074
1762.600,0.083
1760.672,0.095
1758.743,0.110
1756.815,0.131
1754.886,0.161
1752.958,0.201
1751.030,0.249
1749.101,0.307
1747.173,0.372
1745.244,0.446
1743.316,0.520
1741.387,0.595
1739.459,0.672
1737.530,0.750
1735.602,0.825
1733.673,0.893
1731.745,0.947
1729.817,0.982
1727.888,1.000
1725.960,0.998
1724.031,0.974
1722.103,0.932
1720.174,0.882
1718.246,0.830
1716.318,0.780
1714.389,0.739
1712.461,0.709
1710.532,0.692
1708.604,0.691
1706.675,0.699
1704.747,0.708
1702.818,0.707
1700.890,0.692
1698.961,0.663
1697.033,0.620
1695.104,0.568
1693.176,0.512
1691.248,0.455
1689.319,0.401
1687.391,0.352
1685.462,0.309
1683.534,0.270
1681.605,0.234
1679.677,0.203
1677.749,0.179
1675.820,0.160
1673.892,0.146
1671.963,0.134
1670.035,0.122
1668.106,0.112
1666.178,0.104
1664.249,0.097
1662.321,0.091
1660.393,0.086
1658.464,0.083
1656.536,0.079
1654.607,0.077
1652.679,0.075
1650.750,0.074
1648.822,0.073
1646.893,0.074
1644.965,0.077
1643.036,0.081
1641.108,0.086
1639.180,0.089
1637.251,0.090
1635.323,0.089
1633.394,0.086
1631.466,0.082
1629.537,0.077
1627.609,0.074
1625.680,0.073
1623.752,0.077
1621.824,0.084
1619.895,0.093
1617.967,0.102
1616.038,0.111
1614.110,0.119
1612.181,0.124
1610.253,0.128
1608.324,0.132
1606.396,0.139
1604.468,0.152
1602.539,0.170
1600.611,0.188
1598.682,0.204
1596.754,0.212
1594.825,0.210
1592.897,0.196
1590.968,0.174
1589.040,0.147
1587.112,0.121
1585.183,0.098
1583.255,0.082
1581.326,0.071
1579.398,0.066
1577.469,0.063
1575.541,0.063
1573.612,0.064
1571.684,0.067
1569.755,0.070
1567.827,0.073
1565.899,0.076
1563.970,0.080
1562.042,0.084
1560.113,0.088
1558.185,0.093
1556.256,0.101
1554.328,0.112
1552.400,0.126
1550.471,0.143
1548.543,0.163
1546.614,0.196
1544.686,0.240
1542.757,0.289
1540.829,0.341
1538.900,0.396
1536.972,0.450
1535.043,0.499
1533.115,0.537
1531.187,0.564
1529.258,0.578
1527.330,0.579
1525.401,0.564
1523.473,0.533
1521.544,0.491
1519.616,0.444
1517.688,0.397
1515.759,0.354
1513.831,0.314
1511.902,0.277
1509.974,0.242
1508.045,0.209
1506.117,0.179
1504.188,0.152
1502.260,0.129
1500.331,0.112
1498.403,0.102
1496.475,0.096
1494.546,0.091
1492.618,0.086
1490.689,0.085
1488.761,0.088
1486.832,0.095
1484.904,0.105
1482.975,0.117
1481.047,0.129
1479.119,0.141
1477.190,0.152
1475.262,0.160
1473.333,0.167
1471.405,0.174
1469.476,0.183
1467.548,0.193
1465.619,0.204
1463.691,0.215
1461.763,0.223
1459.834,0.230
1457.906,0.233
1455.977,0.233
1454.049,0.231
1452.120,0.228
1450.192,0.223
1448.263,0.217
1446.335,0.213
1444.406,0.209
1442.478,0.206
1440.550,0.204
1438.621,0.201
1436.693,0.197
1434.764,0.191
1432.836,0.185
1430.907,0.180
1428.979,0.176
1427.051,0.177
1425.122,0.189
1423.194,0.214
1421.265,0.249
1419.337,0.288
1417.408,0.323
1415.480,0.345
1413.551,0.349
1411.623,0.336
1409.694,0.308
1407.766,0.272
1405.838,0.240
1403.909,0.218
1401.981,0.208
1400.052,0.208
1398.124,0.213
1396.195,0.221
1394.267,0.229
1392.339,0.235
1390.410,0.240
1388.482,0.243
1386.553,0.244
1384.625,0.244
1382.696,0.244
1380.768,0.243
1378.839,0.242
1376.911,0.240
1374.982,0.239
1373.054,0.237
1371.125,0.236
1369.197,0.235
1367.269,0.236
1365.340,0.237
1363.412,0.240
1361.483,0.242
1359.555,0.244
1357.626,0.245
1355.698,0.245
1353.770,0.243
1351.841,0.240
1349.913,0.235
1347.984,0.229
1346.056,0.224
1344.127,0.218
1342.199,0.213
1340.270,0.207
1338.342,0.202
1336.413,0.197
1334.485,0.194
1332.557,0.192
1330.628,0.194
1328.700,0.201
1326.771,0.213
1324.843,0.231
1322.914,0.253
1320.986,0.277
1319.057,0.304
1317.129,0.331
1315.201,0.357
1313.272,0.378
1311.344,0.392
1309.415,0.397
1307.487,0.392
1305.558,0.379
1303.630,0.360
1301.701,0.339
1299.773,0.321
1297.845,0.308
1295.916,0.303
1293.988,0.303
1292.059,0.308
1290.131,0.314
1288.202,0.320
1286.274,0.325
1284.345,0.328
1282.417,0.330
1280.489,0.331
1278.560,0.333
1276.632,0.335
1274.703,0.339
1272.775,0.345
1270.846,0.353
1268.918,0.364
1266.989,0.378
1265.061,0.396
1263.133,0.419
1261.204,0.445
1259.276,0.474
1257.347,0.501
1255.419,0.524
1253.490,0.540
1251.562,0.547
1249.633,0.549
1247.705,0.548
1245.776,0.548
1243.848,0.553
1241.920,0.564
1239.991,0.583
1238.063,0.608
1236.134,0.636
1234.206,0.666
1232.277,0.696
1230.349,0.727
1228.421,0.757
1226.492,0.784
1224.564,0.807
1222.635,0.823
1220.707,0.830
1218.778,0.827
1216.850,0.816
1214.921,0.799
1212.993,0.781
1211.064,0.764
1209.136,0.751
1207.208,0.740
1205.279,0.732
1203.351,0.723
1201.422,0.714
1199.494,0.705
1197.565,0.696
1195.637,0.690
1193.708,0.689
1191.780,0.693
1189.852,0.702
1187.923,0.715
1185.995,0.730
1184.066,0.748
1182.138,0.766
1180.209,0.786
1178.281,0.805
1176.352,0.825
1174.424,0.844
1172.495,0.862
1170.567,0.878
1168.639,0.892
1166.710,0.902
1164.782,0.906
1162.853,0.905
1160.925,0.898
1158.996,0.886
1157.068,0.872
1155.140,0.858
1153.211,0.847
1151.283,0.841
1149.354,0.842
1147.426,0.850
1145.497,0.864
1143.569,0.880
1141.640,0.896
1139.712,0.909
1137.783,0.914
1135.855,0.911
1133.927,0.898
1131.998,0.876
1130.070,0.845
1128.141,0.806
1126.213,0.762
1124.284,0.715
1122.356,0.665
1120.427,0.617
1118.499,0.571
1116.571,0.530
1114.642,0.493
1112.714,0.461
1110.785,0.433
1108.857,0.407
1106.928,0.382
1105.000,0.359
1103.071,0.339
1101.143,0.323
1099.215,0.313
1097.286,0.313
1095.358,0.322
1093.429,0.344
1091.501,0.380
1089.572,0.429
1087.644,0.491
1085.715,0.559
1083.787,0.627
1081.859,0.689
1079.930,0.737
1078.002,0.767
1076.073,0.780
1074.145,0.779
1072.216,0.768
1070.288,0.754
1068.359,0.739
1066.431,0.725
1064.503,0.712
1062.574,0.698
1060.646,0.682
1058.717,0.664
1056.789,0.643
1054.860,0.621
1052.932,0.599
1051.003,0.578
1049.075,0.559
1047.146,0.543
1045.218,0.528
1043.290,0.517
1041.361,0.507
1039.433,0.498
1037.504,0.490
1035.576,0.481
1033.647,0.468
1031.719,0.452
1029.791,0.435
1027.862,0.420
1025.934,0.411
1024.005,0.408
1022.077,0.409
1020.148,0.409
1018.220,0.407
1016.291,0.400
1014.363,0.386
1012.434,0.368
1010.506,0.347
1008.578,0.329
1006.649,0.315
1004.721,0.305
1002.792,0.298
1000.864,0.291
998.935,0.285
997.007,0.279
995.078,0.275
993.150,0.271
991.222,0.268
989.293,0.266
987.365,0.266
985.436,0.267
983.508,0.268
981.579,0.270
979.651,0.273
977.722,0.275
975.794,0.278
973.866,0.280
971.937,0.283
970.009,0.286
968.080,0.289
966.152,0.292
964.223,0.294
962.295,0.296
960.366,0.297
958.438,0.297
956.510,0.297
954.581,0.297
952.653,0.297
950.724,0.297
948.796,0.297
946.867,0.296
944.939,0.294
943.010,0.290
941.082,0.286
939.154,0.280
937.225,0.274
935.297,0.267
933.368,0.261
931.440,0.254
929.511,0.249
927.583,0.244
925.654,0.242
923.726,0.241
921.797,0.242
919.869,0.244
917.941,0.245
916.012,0.245
914.084,0.241
912.155,0.235
910.227,0.225
908.298,0.213
906.370,0.201
904.441,0.190
902.513,0.180
900.585,0.171
898.656,0.165
896.728,0.160
894.799,0.158
892.871,0.156
890.942,0.156
889.014,0.156
887.085,0.157
885.157,0.157
883.229,0.158
881.300,0.158
879.372,0.159
877.443,0.160
875.515,0.162
873.586,0.166
871.658,0.172
869.729,0.178
867.801,0.186
865.872,0.192
863.944,0.197
862.016,0.200
860.087,0.202
858.159,0.204
856.230,0.206
854.302,0.208
852.373,0.210
850.445,0.211
848.516,0.211
846.588,0.208
844.660,0.204
842.731,0.198
840.803,0.193
838.874,0.189
836.946,0.186
835.017,0.184
833.089,0.184
831.160,0.186
829.232,0.192
827.304,0.201
825.375,0.215
823.447,0.233
821.518,0.251
819.590,0.265
817.661,0.274
815.733,0.275
813.804,0.268
811.876,0.255
809.948,0.237
808.019,0.218
806.091,0.200
804.162,0.185
802.234,0.173
800.305,0.164
798.377,0.157
796.448,0.152
794.520,0.150
792.592,0.151
790.663,0.156
788.735,0.164
786.806,0.175
784.878,0.190
782.949,0.208
781.021,0.230
779.092,0.255
777.164,0.281
775.236,0.306
773.307,0.325
771.379,0.336
769.450,0.337
767.522,0.329
765.593,0.314
763.665,0.297
761.736,0.282
759.808,0.272
757.880,0.268
755.951,0.269
754.023,0.272
752.094,0.273
750.166,0.272
748.237,0.267
746.309,0.259
744.380,0.249
742.452,0.239
740.523,0.229
738.595,0.221
736.667,0.214
734.738,0.208
732.810,0.202
730.881,0.196
728.953,0.191
727.024,0.188
725.096,0.186
723.167,0.184
721.239,0.183
719.311,0.183
717.382,0.184
715.454,0.186
713.525,0.188
711.597,0.190
709.668,0.193
707.740,0.196
705.811,0.197
703.883,0.197
701.955,0.197
700.026,0.197
698.098,0.198
696.169,0.200
694.241,0.203
692.312,0.206
690.384,0.210
688.455,0.214
686.527,0.218
684.599,0.223
682.670,0.227
680.742,0.231
678.813,0.234
676.885,0.240
674.956,0.247
673.028,0.253
671.099,0.257
669.171,0.260
667.242,0.262
665.314,0.261
663.386,0.260
661.457,0.258
659.529,0.257
657.600,0.260
655.672,0.263
653.743,0.264
651.815,0.265
649.886,0.264
647.958,0.263
646.030,0.261
644.101,0.259
642.173,0.256
640.244,0.252
638.316,0.248
636.387,0.244
634.459,0.239
632.530,0.233
630.602,0.228
628.674,0.224
626.745,0.220
624.817,0.218
622.888,0.217
620.960,0.218
619.031,0.222
617.103,0.228
615.174,0.234
613.246,0.240
611.318,0.243
609.389,0.242
607.461,0.237
605.532,0.229
603.604,0.219
601.675,0.209
599.747,0.200
597.818,0.195
595.890,0.192
593.962,0.191
592.033,0.191
590.105,0.192
588.176,0.193
586.248,0.194
584.319,0.194
582.391,0.194
580.462,0.192
578.534,0.188
576.606,0.182
574.677,0.174
572.749,0.165
570.820,0.156
568.892,0.147
566.963,0.139
565.035,0.132
563.106,0.126
561.178,0.122
559.250,0.118
557.321,0.115
555.393,0.114
553.464,0.113
551.536,0.113
549.607,0.114
547.679,0.114
545.750,0.115
543.822,0.115
541.893,0.115
539.965,0.114
538.037,0.114
536.108,0.114
534.180,0.114
532.251,0.117
530.323,0.122
528.394,0.131
526.466,0.144
524.537,0.163
522.609,0.186
520.681,0.211
518.752,0.237
516.824,0.264
514.895,0.290
512.967,0.309
511.038,0.317
509.110,0.314
507.181,0.300
505.253,0.279
503.325,0.254
501.396,0.227
499.468,0.203
497.539,0.187
495.611,0.178
493.682,0.173
491.754,0.169
489.825,0.166
487.897,0.164
485.969,0.161
484.040,0.157
482.112,0.150
480.183,0.143
478.255,0.139
476.326,0.135
474.398,0.132
472.469,0.131
470.541,0.130
468.613,0.131
466.684,0.132
464.756,0.131
462.827,0.130
460.899,0.129
458.970,0.130
457.042,0.130
455.113,0.129
453.185,0.128
451.257,0.130
449.328,0.134
447.400,0.140
445.471,0.147
443.543,0.153
441.614,0.157
439.686,0.159
437.757,0.160
435.829,0.159
433.900,0.158
431.972,0.156
430.044,0.155
428.115,0.155
426.187,0.157
424.258,0.157
422.330,0.157
420.401,0.156
418.473,0.153
416.544,0.151
414.616,0.151
412.688,0.152
410.759,0.154
408.831,0.161
406.902,0.167
404.974,0.172
403.045,0.174
401.117,0.376
